* Measurement data measured by REW V5.40 beta 96
* Source: Discrete 8 SC USB, Antelope Record, 4, volume: no control
* Format: 512k Log Swept Sine, 1 sweep at -27.4 dBFS using a loopback as calibration and timing reference
* Dated: Feb 10, 2026 2:30:47 PM
* REW Settings:
*  C-weighting compensation: Off
*  Target level: 75.0 dB
* Note: Delay 2.7926 ms (958 mm, 3 ft 1.71 in) using estimated IR delay relative to Loopback as cal ref from Antelope Playback R to Antelope Record 3 with no timing offset
* Measurement: L+R Feb 10
* Smoothing: 1/48 octave
* Frequency Step: 1/96 octave
* Start Frequency: 20.291 Hz
*
* Freq(Hz) SPL(dB) Phase(degrees)
20.290907 47.555 78.1717
20.437943 47.399 90.8426
20.586044 47.795 101.7841
20.735220 48.568 109.8914
20.885475 49.466 115.4111
21.036821 50.351 118.8371
21.189262 51.178 120.9271
21.342808 51.935 122.1460
21.497467 52.633 122.6863
21.653246 53.288 122.7238
21.810154 53.903 122.2903
21.968201 54.483 121.3553
22.127390 55.024 119.9773
22.287735 55.517 118.1126
22.449242 55.959 115.8227
22.611917 56.334 113.1514
22.775772 56.641 110.1216
22.940815 56.868 106.8791
23.107054 57.012 103.4038
23.274498 57.067 99.9171
23.443153 57.032 96.3876
23.613033 56.908 93.0655
23.784142 56.695 89.9481
23.956491 56.405 87.2608
24.130091 56.043 85.0563
24.304947 55.632 83.4921
24.481071 55.186 82.6619
24.658470 54.739 82.6287
24.837156 54.319 83.4218
25.017136 53.965 84.9571
25.198421 53.704 87.0739
25.381020 53.556 89.5381
25.564941 53.521 92.1043
25.750195 53.590 94.5690
25.936790 53.744 96.8180
26.124741 53.966 98.7908
26.314051 54.244 100.4752
26.504732 54.567 101.8536
26.696796 54.929 102.9017
26.890253 55.319 103.5739
27.085112 55.730 103.8429
27.281382 56.144 103.6723
27.479073 56.549 103.0756
27.678198 56.928 102.0778
27.878765 57.271 100.7449
28.080786 57.568 99.1331
28.284271 57.812 97.3517
28.489231 58.001 95.4443
28.695675 58.131 93.5233
28.903616 58.204 91.6686
29.113064 58.221 89.9494
29.324028 58.192 88.4782
29.536524 58.123 87.3045
29.750557 58.028 86.5074
29.966141 57.922 86.1217
30.183289 57.819 86.1761
30.402010 57.741 86.6619
30.622314 57.709 87.5217
30.844217 57.738 88.6872
31.067726 57.844 90.0009
31.292856 58.034 91.2813
31.519617 58.304 92.3768
31.748020 58.642 93.0705
31.978081 59.024 93.2446
32.209808 59.426 92.8539
32.443211 59.820 91.8966
32.678310 60.186 90.4544
32.915108 60.513 88.6095
33.153625 60.792 86.4325
33.393871 61.013 84.0029
33.635857 61.171 81.4047
33.879597 61.261 78.7097
34.125103 61.282 76.0703
34.372387 61.241 73.5778
34.621464 61.144 71.2842
34.872345 60.996 69.2353
35.125042 60.803 67.4950
35.379574 60.570 66.1336
35.635948 60.307 65.2185
35.894180 60.027 64.8181
36.154285 59.745 64.9822
36.416275 59.483 65.7428
36.680161 59.264 67.0995
36.945961 59.116 68.9994
37.213688 59.064 71.3075
37.483353 59.124 73.7879
37.754974 59.298 76.1977
38.028561 59.572 78.3323
38.304131 59.926 80.0471
38.581699 60.339 81.2605
38.861279 60.787 81.9166
39.142883 61.247 82.0281
39.426529 61.702 81.6601
39.712231 62.142 80.8883
40.000000 62.562 79.7776
40.289856 62.959 78.3720
40.581814 63.331 76.7176
40.875885 63.679 74.8515
41.172089 64.003 72.7774
41.470440 64.301 70.4897
41.770950 64.569 68.0047
42.073643 64.804 65.3558
42.378525 65.005 62.5653
42.685616 65.171 59.6296
42.994934 65.295 56.5613
43.306492 65.375 53.4221
43.620308 65.412 50.2495
43.936401 65.403 47.0264
44.254780 65.343 43.7784
44.575470 65.228 40.5876
44.898483 65.059 37.5125
45.223835 64.837 34.5653
45.551544 64.559 31.7769
45.881630 64.220 29.2466
46.214108 63.826 27.1083
46.548996 63.393 25.4468
46.886307 62.934 24.2593
47.226067 62.459 23.5293
47.568283 61.976 23.2930
47.912983 61.500 23.5567
48.260181 61.039 24.2264
48.609894 60.590 25.2351
48.962143 60.149 26.6312
49.316940 59.715 28.4806
49.674313 59.291 30.8780
50.034271 58.895 34.0436
50.396843 58.573 38.1407
50.762039 58.385 43.0990
51.129883 58.389 48.6778
51.500389 58.627 54.4084
51.873581 59.093 59.6273
52.249481 59.735 63.8267
52.628101 60.482 66.8223
53.009464 61.272 68.6024
53.393593 62.054 69.2918
53.780506 62.801 69.1444
54.170223 63.501 68.3182
54.562763 64.144 66.8913
54.958145 64.719 65.0129
55.356396 65.227 62.8413
55.757530 65.671 60.4518
56.161572 66.051 57.8829
56.568542 66.365 55.1933
56.978462 66.611 52.4879
57.391350 66.796 49.8941
57.807232 66.928 47.4678
58.226128 67.017 45.2553
58.648056 67.076 43.3547
59.073048 67.124 41.7752
59.501114 67.175 40.4425
59.932281 67.241 39.3550
60.366577 67.335 38.4274
60.804020 67.457 37.4894
61.244629 67.602 36.5229
61.688435 67.767 35.4757
62.135452 67.942 34.2543
62.585712 68.118 32.9102
63.039234 68.288 31.4459
63.496040 68.448 29.8882
63.956161 68.599 28.3060
64.419617 68.739 26.6671
64.886421 68.867 25.0477
65.356621 68.993 23.5131
65.830215 69.127 21.9882
66.307251 69.270 20.4342
66.787743 69.421 18.7882
67.271713 69.575 17.0711
67.759193 69.738 15.2793
68.250206 69.904 13.2884
68.744774 70.068 11.1495
69.242928 70.228 8.8092
69.744690 70.375 6.2549
70.250084 70.503 3.4852
70.759148 70.602 0.4666
71.271896 70.664 -2.7011
71.788361 70.681 -6.0973
72.308571 70.633 -9.6261
72.832550 70.514 -13.1217
73.360321 70.329 -16.4681
73.891922 70.076 -19.6256
74.427376 69.756 -22.4438
74.966705 69.380 -24.7667
75.509949 68.963 -26.5291
76.057121 68.526 -27.5650
76.608261 68.103 -27.8490
77.163399 67.724 -27.4405
77.722557 67.420 -26.4071
78.285767 67.223 -24.8994
78.853058 67.153 -23.2482
79.424461 67.203 -21.7600
80.000000 67.355 -20.6513
80.579712 67.581 -20.1287
81.163628 67.843 -20.2853
81.751770 68.112 -21.0497
82.344177 68.362 -22.4347
82.940880 68.568 -24.2908
83.541901 68.725 -26.5240
84.147285 68.814 -29.0811
84.757050 68.833 -31.7423
85.371231 68.785 -34.4465
85.989868 68.670 -37.1371
86.612984 68.483 -39.7179
87.240616 68.234 -42.0285
87.872803 67.927 -44.0538
88.509560 67.572 -45.6050
89.150940 67.188 -46.6520
89.796967 66.792 -47.1148
90.447670 66.407 -46.9303
91.103088 66.060 -46.1716
91.763260 65.772 -44.8243
92.428215 65.579 -42.9946
93.097992 65.493 -40.9890
93.772614 65.521 -38.9211
94.452133 65.659 -37.0813
95.136566 65.888 -35.6455
95.825966 66.187 -34.7792
96.520363 66.522 -34.5999
97.219788 66.857 -35.1012
97.924286 67.171 -36.1523
98.633881 67.440 -37.7519
99.348625 67.650 -39.6887
100.068542 67.799 -41.7973
100.793686 67.892 -44.0524
101.524078 67.922 -46.3285
102.259766 67.905 -48.5083
103.000778 67.834 -50.6692
103.747162 67.718 -52.5902
104.498962 67.560 -54.3061
105.256203 67.366 -55.7662
106.018929 67.149 -56.7530
106.787186 66.927 -57.4149
107.561012 66.712 -57.6396
108.340446 66.520 -57.4902
109.125526 66.376 -56.9467
109.916290 66.292 -56.2380
110.712791 66.267 -55.5328
111.515060 66.301 -54.8028
112.323143 66.384 -54.3554
113.137085 66.494 -54.1421
113.956924 66.617 -54.1754
114.782700 66.738 -54.4002
115.614464 66.851 -54.7898
116.452255 66.952 -55.1954
117.296112 67.046 -55.6287
118.146095 67.135 -56.0414
119.002228 67.230 -56.3841
119.864563 67.340 -56.7260
120.733154 67.468 -57.0897
121.608040 67.607 -57.6155
122.489258 67.757 -58.2121
123.376869 67.921 -58.9334
124.270905 68.080 -59.8479
125.171425 68.234 -60.8831
126.078468 68.375 -62.0030
126.992081 68.506 -63.1341
127.912323 68.629 -64.3161
128.839233 68.748 -65.4226
129.772842 68.869 -66.4756
130.713242 69.001 -67.6197
131.660431 69.138 -68.8187
132.614502 69.292 -70.0297
133.575485 69.452 -71.4144
134.543427 69.611 -72.9486
135.518387 69.767 -74.7175
136.500412 69.907 -76.6232
137.489548 70.026 -78.6992
138.485855 70.114 -80.8762
139.489380 70.174 -83.1171
140.500168 70.212 -85.3352
141.518295 70.226 -87.5059
142.543793 70.219 -89.6548
143.576721 70.193 -91.8874
144.617142 70.147 -94.0468
145.665100 70.080 -96.1402
146.720642 69.995 -98.1917
147.783844 69.880 -100.2313
148.854752 69.741 -102.1761
149.933411 69.583 -103.9245
151.019897 69.401 -105.4958
152.114243 69.203 -106.9236
153.216522 68.993 -107.9957
154.326797 68.778 -108.8671
155.445114 68.570 -109.4749
156.571533 68.374 -109.8754
157.706116 68.200 -110.0586
158.848923 68.040 -110.0240
160.000000 67.898 -109.8326
161.159424 67.792 -109.4081
162.327255 67.705 -108.8260
163.503540 67.653 -108.0511
164.688354 67.650 -107.1950
165.881760 67.695 -106.1973
167.083801 67.800 -105.1549
168.294571 67.969 -104.2009
169.514099 68.187 -103.4022
170.742462 68.453 -102.8705
171.979736 68.756 -102.7024
173.225967 69.079 -102.8420
174.481232 69.404 -103.2909
175.745605 69.722 -103.9879
177.019119 70.031 -104.9262
178.301880 70.335 -106.0252
179.593933 70.634 -107.2007
180.895340 70.926 -108.3923
182.206177 71.225 -109.7822
183.526520 71.524 -111.2788
184.856430 71.829 -112.8305
186.195984 72.144 -114.5109
187.545227 72.460 -116.4590
188.904266 72.772 -118.5755
190.273132 73.084 -120.9085
191.651932 73.385 -123.4288
193.040726 73.672 -126.1884
194.439575 73.945 -129.2025
195.848572 74.187 -132.4211
197.267761 74.384 -135.7861
198.697250 74.540 -139.3071
200.137085 74.650 -142.8663
201.587372 74.707 -146.3867
203.048157 74.725 -149.7566
204.519531 74.718 -152.9023
206.001556 74.697 -155.8678
207.494324 74.668 -158.6336
208.997925 74.644 -161.1879
210.512405 74.628 -163.6394
212.037857 74.616 -166.0767
213.574371 74.613 -168.5040
215.122025 74.624 -170.9937
216.680893 74.632 -173.4873
218.251053 74.626 -175.9712
219.832581 74.613 -178.5478
221.425583 74.590 178.9922
223.030121 74.561 176.6083
224.646286 74.541 174.2357
226.274170 74.534 171.9656
227.913849 74.536 169.6652
229.565399 74.545 167.2676
231.228928 74.557 164.8438
232.904510 74.563 162.3364
234.592224 74.556 159.6736
236.292191 74.541 156.9303
238.004456 74.507 154.2175
239.729126 74.453 151.5003
241.466309 74.381 148.8231
243.216080 74.288 146.2188
244.978516 74.180 143.7239
246.753738 74.062 141.3541
248.541809 73.935 139.0830
250.342850 73.800 136.9977
252.156937 73.666 135.1550
253.984161 73.546 133.4557
255.824646 73.452 132.0087
257.678467 73.383 130.6678
259.545685 73.347 129.4938
261.426483 73.358 128.3762
263.320862 73.416 127.1384
265.229004 73.521 125.7441
267.150970 73.660 124.0971
269.086853 73.821 122.0989
271.036774 73.982 119.7232
273.000824 74.128 117.0599
274.979095 74.254 114.1720
276.971710 74.348 111.1132
278.978760 74.410 107.9629
281.000336 74.441 104.8008
283.036591 74.459 101.6321
285.087585 74.456 98.5424
287.153442 74.445 95.5246
289.234283 74.441 92.4500
291.330200 74.435 89.3340
293.441284 74.428 86.0097
295.567688 74.407 82.5624
297.709503 74.359 78.9590
299.866821 74.276 75.2390
302.039795 74.148 71.4140
304.228485 73.967 67.6918
306.433044 73.734 64.1133
308.653595 73.452 60.7111
310.890228 73.129 57.6537
313.143066 72.782 54.9015
315.412231 72.422 52.5285
317.697845 72.058 50.6503
320.000000 71.708 49.2893
322.318848 71.390 48.1847
324.654510 71.124 47.5394
327.007080 70.919 47.2491
329.376709 70.782 47.0484
331.763519 70.728 46.8814
334.167603 70.747 46.6624
336.589142 70.836 46.0263
339.028198 70.961 45.0532
341.484924 71.107 43.6444
343.959473 71.251 41.8538
346.451935 71.370 39.7092
348.962463 71.463 37.3367
351.491211 71.521 34.9082
354.038239 71.553 32.4727
356.603760 71.551 30.1021
359.187866 71.527 27.9142
361.790680 71.503 25.9208
364.412354 71.488 24.1184
367.053040 71.497 22.4191
369.712860 71.531 20.8029
372.391968 71.590 19.1651
375.090454 71.673 17.5163
377.808533 71.769 15.7662
380.546265 71.887 13.9661
383.303864 72.027 12.1826
386.081451 72.181 10.3923
388.879150 72.365 8.4451
391.697144 72.581 6.4648
394.535522 72.826 4.2572
397.394501 73.092 1.7502
400.274170 73.366 -1.0846
403.174744 73.625 -4.3290
406.096313 73.851 -7.9265
409.039062 74.033 -11.6481
412.003113 74.173 -15.4048
414.988647 74.273 -18.9883
417.995850 74.364 -22.3217
421.024811 74.474 -25.4700
424.075714 74.608 -28.4481
427.148743 74.779 -31.4628
430.244049 74.991 -34.7344
433.361786 75.229 -38.2373
436.502106 75.462 -42.1223
439.665161 75.679 -46.4460
442.851166 75.875 -50.9668
446.060242 76.040 -55.7447
449.292572 76.158 -60.6341
452.548340 76.238 -65.5105
455.827698 76.279 -70.4938
459.130798 76.285 -75.3717
462.457855 76.252 -80.2001
465.809021 76.191 -85.0632
469.184448 76.104 -89.6450
472.584381 75.991 -94.0204
476.008911 75.863 -98.3425
479.458252 75.723 -102.3168
482.932617 75.587 -105.9667
486.432159 75.472 -109.4322
489.957031 75.389 -112.6898
493.507477 75.345 -115.8574
497.083618 75.335 -119.0846
500.685699 75.347 -122.4238
504.313873 75.371 -125.9070
507.968323 75.398 -129.5576
511.649292 75.416 -133.2979
515.356934 75.428 -136.9894
519.091370 75.442 -140.5760
522.852966 75.466 -144.0640
526.641724 75.512 -147.4919
530.458008 75.580 -150.8483
534.301941 75.686 -154.2413
538.173706 75.832 -157.7484
542.073547 76.010 -161.5918
546.001648 76.194 -165.6504
549.958191 76.376 -170.0095
553.943420 76.563 -174.6132
557.957520 76.737 -179.5580
562.000671 76.882 175.3811
566.073181 77.005 170.1051
570.175171 77.091 164.5646
574.306885 77.147 159.0486
578.468567 77.160 153.5240
582.660400 77.136 147.9912
586.882568 77.079 142.6179
591.135376 76.998 137.5125
595.419006 76.896 132.5981
599.733643 76.805 127.8310
604.079590 76.735 123.5414
608.456970 76.688 119.3896
612.866089 76.684 115.3004
617.307190 76.730 111.3364
621.780457 76.833 107.1429
626.286133 76.971 102.7843
630.824463 77.138 98.0721
635.395691 77.323 92.8914
640.000000 77.502 87.4644
644.637695 77.666 81.6688
649.309021 77.800 75.6067
654.014160 77.887 69.2889
658.753418 77.933 62.8474
663.527039 77.947 56.3871
668.335205 77.923 49.9462
673.178284 77.859 43.5712
678.056396 77.758 37.1776
682.969849 77.629 31.0282
687.918945 77.478 25.0544
692.903870 77.329 19.4886
697.924927 77.183 14.1467
702.982422 77.070 8.9813
708.076477 76.991 3.9382
713.207520 76.956 -1.1028
718.375732 76.959 -6.2081
723.581360 76.988 -11.5746
728.824707 77.034 -17.1393
734.106079 77.084 -23.0989
739.425720 77.131 -29.2535
744.783936 77.163 -35.6722
750.180908 77.170 -42.3512
755.617065 77.139 -49.0353
761.092529 77.063 -55.8947
766.607727 76.950 -62.7427
772.162903 76.799 -69.5452
777.758301 76.610 -76.2151
783.394287 76.373 -82.8016
789.071045 76.108 -89.0756
794.789001 75.814 -94.9797
800.548340 75.513 -100.3916
806.349487 75.215 -105.2742
812.192627 74.962 -109.6147
818.078125 74.790 -113.5720
824.006226 74.723 -117.0671
829.977295 74.769 -120.7386
835.991699 74.928 -124.7000
842.049622 75.178 -129.1938
848.151428 75.465 -134.4127
854.297485 75.767 -140.1652
860.488098 76.064 -146.5808
866.723572 76.326 -153.3336
873.004211 76.555 -160.5273
879.330322 76.745 -168.0205
885.702332 76.896 -175.4967
892.120483 77.021 176.8090
898.585144 77.115 169.1892
905.096680 77.197 161.4299
911.655396 77.270 153.6544
918.261597 77.317 145.8627
924.915710 77.360 138.0327
931.618042 77.406 130.0299
938.368896 77.443 122.0020
945.168762 77.464 113.7421
952.017822 77.457 105.3320
958.916504 77.427 96.8975
965.865234 77.366 88.2886
972.864319 77.268 79.7174
979.914062 77.143 71.0820
987.014954 76.973 62.5693
994.167236 76.764 54.2295
1001.371399 76.548 46.2249
1008.627747 76.323 38.5454
1015.936646 76.113 31.1631
1023.298584 75.943 23.9929
1030.713867 75.841 16.9512
1038.182739 75.790 9.7589
1045.705933 75.765 2.2925
1053.283447 75.745 -5.6594
1060.916016 75.712 -13.8469
1068.603882 75.646 -22.2850
1076.347412 75.536 -30.8629
1084.147095 75.378 -39.2996
1092.003296 75.194 -47.4353
1099.916382 74.989 -55.3004
1107.886841 74.817 -62.8248
1115.915039 74.681 -70.0079
1124.001343 74.607 -76.9858
1132.146362 74.614 -84.0426
1140.350342 74.694 -91.4451
1148.613770 74.833 -99.3182
1156.937134 74.977 -107.7765
1165.320801 75.103 -116.9053
1173.765137 75.180 -126.5171
1182.270752 75.190 -136.3707
1190.838013 75.134 -146.3868
1199.467285 74.999 -156.3694
1208.159180 74.804 -166.1233
1216.913940 74.573 -175.4758
1225.732178 74.318 175.6028
1234.614380 74.063 167.0975
1243.560913 73.840 159.1392
1252.572266 73.680 151.4979
1261.648926 73.600 144.1443
1270.791382 73.613 136.5845
1280.000000 73.723 128.7085
1289.275391 73.891 120.4797
1298.618042 74.085 111.6390
1308.028320 74.292 102.1157
1317.506836 74.477 91.9958
1327.054077 74.623 81.5979
1336.670410 74.713 70.7299
1346.356567 74.742 59.6857
1356.112793 74.705 48.7034
1365.939697 74.617 37.6947
1375.837891 74.486 26.7780
1385.807739 74.312 16.0507
1395.849854 74.124 5.6978
1405.964844 73.946 -4.3855
1416.152954 73.768 -14.1802
1426.415039 73.597 -23.6162
1436.751465 73.484 -32.8715
1447.162720 73.421 -41.9434
1457.649414 73.424 -51.0563
1468.212158 73.488 -60.3676
1478.851440 73.610 -70.0061
1489.567871 73.764 -80.0317
1500.361816 73.925 -90.4244
1511.234131 74.070 -101.1213
1522.185059 74.224 -111.9474
1533.215454 74.378 -122.9056
1544.325806 74.540 -133.8713
1555.516602 74.728 -145.1472
1566.788574 74.939 -156.7910
1578.142090 75.163 -168.8999
1589.578003 75.390 178.6064
1601.096680 75.580 165.5339
1612.698975 75.719 152.1826
1624.385254 75.801 138.4860
1636.156250 75.815 124.6453
1648.012451 75.764 110.8619
1659.954590 75.651 97.1915
1671.983398 75.495 83.6548
1684.099243 75.308 70.4703
1696.302856 75.125 57.5137
1708.594971 74.940 44.6907
1720.976196 74.772 32.1716
1733.447144 74.620 19.6593
1746.008423 74.490 7.0967
1758.660645 74.377 -5.2678
1771.404663 74.281 -17.8043
1784.240967 74.205 -30.2533
1797.170288 74.149 -42.4832
1810.193359 74.128 -54.8291
1823.310791 74.154 -67.3676
1836.523193 74.224 -80.1658
1849.831421 74.315 -93.2437
1863.236084 74.425 -106.5698
1876.737793 74.529 -120.3330
1890.337524 74.627 -134.3677
1904.035645 74.704 -148.5933
1917.833008 74.757 -163.1399
1931.730469 74.803 -177.6196
1945.728638 74.834 167.7344
1959.828125 74.840 152.9075
1974.029907 74.840 138.0073
1988.334473 74.845 123.0627
2002.742798 74.838 107.9380
2017.255493 74.814 92.8357
2031.873291 74.775 77.4736
2046.597168 74.713 62.2129
2061.427734 74.650 46.8564
2076.365479 74.587 31.7107
2091.411865 74.517 16.5134
2106.566895 74.461 1.3918
2121.832031 74.436 -13.8206
2137.207764 74.435 -29.0535
2152.694824 74.438 -44.3896
2168.294189 74.474 -59.7778
2184.006592 74.539 -75.4619
2199.832764 74.610 -91.1672
2215.773682 74.713 -107.2622
2231.830078 74.828 -123.6619
2248.002686 74.948 -140.3398
2264.292725 75.052 -157.5012
2280.700684 75.151 -175.0308
2297.227539 75.201 167.2407
2313.874268 75.218 149.2141
2330.641602 75.177 130.9700
2347.530273 75.074 112.8604
2364.541504 74.954 94.7844
2381.676025 74.828 77.2080
2398.934570 74.698 59.6855
2416.318359 74.589 42.2681
2433.827881 74.514 24.8992
2451.464355 74.473 7.5828
2469.228760 74.471 -9.8369
2487.121826 74.516 -27.5151
2505.144531 74.597 -45.6716
2523.297852 74.679 -63.9382
2541.582764 74.761 -82.7166
2560.000000 74.824 -102.0813
2578.550781 74.866 -121.7219
2597.236084 74.873 -141.4517
2616.056641 74.829 -161.3398
2635.013672 74.741 178.4900
2654.108154 74.600 158.4434
2673.340820 74.427 138.9299
2692.713135 74.249 119.3955
2712.225586 74.099 100.1885
2731.879395 73.979 81.2202
2751.675781 73.917 62.3127
2771.615479 73.925 43.5522
2791.699707 73.982 24.4902
2811.929688 74.088 4.7515
2832.305908 74.219 -15.0479
2852.830078 74.358 -35.3623
2873.502930 74.508 -56.0781
2894.325439 74.648 -77.3098
2915.298828 74.777 -98.7217
2936.424316 74.883 -120.5171
2957.702881 74.964 -142.2603
2979.135742 75.047 -164.0962
3000.723633 75.116 173.8955
3022.468262 75.184 151.6890
3044.370117 75.284 129.5264
3066.430908 75.385 107.0303
3088.651611 75.498 84.3303
3111.033203 75.618 61.4709
3133.577148 75.753 38.1609
3156.284180 75.863 14.5054
3179.156006 75.953 -9.0906
3202.193359 76.028 -33.1462
3225.397949 76.112 -57.3035
3248.770508 76.179 -81.5576
3272.312500 76.226 -106.2129
3296.024902 76.284 -130.5703
3319.909180 76.339 -155.3416
3343.966797 76.392 179.7070
3368.198486 76.443 154.8579
3392.605713 76.486 129.6104
3417.189941 76.538 104.0725
3441.952393 76.600 78.5347
3466.894287 76.674 52.6260
3492.016846 76.743 26.7573
3517.321289 76.795 0.3857
3542.809326 76.841 -26.0198
3568.481934 76.897 -52.8665
3594.340576 76.939 -79.7065
3620.386719 76.981 -106.8506
3646.621582 77.003 -134.1538
3673.046387 77.029 -161.5959
3699.662842 77.035 170.7271
3726.472168 77.064 143.0605
3753.475586 77.081 115.2136
